File: experimental data/mos2 2 raman.txt
FILETYPE=RAMAN SPECTRUM
DATETIME=2025-07-28 12:37:37
CCD=Artemis
CCDMODEL=Atik428EX
LASER=532
TEMPERATURE=0
IT=4000ms
BINNING_START=761
BINNING_LENGTH=10
MODEL=XperRAM-S
SPECTROMETER=XPE200
GRATING=1800
STARTFROM=-50
RSRANGE=726.503
SPECTRATAKEN=1
DISPLAYMODE=LATEST
TYPE=RamanShift
XUNITS=1/cm
LEN=1931
XYDATA=
-468.195,686
-456.558,720
-444.935,722
-433.326,831
-421.730,833
-410.148,796
-398.579,2826
-387.025,924
-375.484,2348
-363.956,842
-352.443,811
-340.943,763
-329.457,831
-317.984,826
-306.525,890
-295.080,891
-283.649,1014
-272.231,826
-260.828,887
-249.438,849
-238.061,914
-226.699,868
-215.350,1002
-204.015,889
-192.694,981
-181.386,1055
-170.093,1126
-158.813,1021
-147.547,1019
-136.294,1182
-125.056,1204
-113.831,1142
-102.620,1351
-91.423,1785
-80.240,1936
-69.071,1738
-57.915,1792
-46.773,1743
-35.645,1774
-24.531,2465
-13.431,4255
-2.344,65535
8.728,17103
19.787,3506
30.832,2340
41.863,2061
52.880,1814
63.884,1792
74.873,2000
85.849,2240
96.811,1470
107.758,1563
118.693,1249
129.613,1237
140.519,1270
151.412,1383
162.290,1158
173.155,1038
184.006,1414
194.843,1209
205.666,1059
216.475,1054
227.270,1082
238.051,1074
248.819,1078
259.572,1054
270.312,1053
281.038,1002
291.750,1038
302.448,975
313.132,1171
323.802,1147
334.459,1098
345.101,1038
355.729,1152
366.344,1178
376.945,1715
387.532,1334
398.104,1497
408.663,10406
419.209,1364
429.740,1221
440.257,1362
450.760,1554
461.250,1267
471.725,1054
482.187,906
492.635,1042
503.068,996
513.488,1390
523.894,1820
534.286,1126
544.664,1120
555.029,1092
565.379,1184
575.715,1117
586.038,1040
596.347,1244
606.641,1171
616.922,1177
627.189,1055
637.442,1093
647.681,1009
657.906,999
668.117,1015
678.315,953
688.498,966
698.668,1013
708.823,899
718.965,982
729.093,1050
739.207,1152
749.307,1224
759.393,1050
769.465,1022
779.523,1096
789.568,1035
799.598,934
809.615,1058
819.618,1050
829.607,1084
839.581,950
849.543,978
859.490,961
869.423,988
879.343,964
889.248,1118
899.140,935
909.018,917
918.881,882
928.731,1075
938.568,1071
948.390,1003
958.198,1002
967.993,1045
977.774,991
987.540,864
997.293,901
1007.033,934
1016.758,965
1026.469,889
1036.167,924
1045.850,863
1055.520,874
1065.176,890
1074.818,966
1084.447,837
1094.061,1002
1103.662,907
1113.249,855
1122.822,796
1132.381,797
1141.926,950
1151.458,919
1160.975,1001
1170.479,863
1179.969,993
1189.446,852
1198.908,949
1208.357,860
1217.791,926
1227.212,980
1236.620,879
1246.013,871
1255.393,818
1264.759,804
1274.111,932
1283.449,967
1292.773,882
1302.084,967
1311.381,931
1320.664,892
1329.934,934
1339.189,887
1348.431,972
1357.659,955
1366.874,859
1376.074,930
1385.261,900
1394.434,908
1403.594,982
1412.739,879
1421.871,864
1430.989,914
1440.094,904
1449.184,832
1458.261,865
1467.325,906
1476.374,866
1485.410,906
1494.432,895
1503.441,944
1512.436,922
1521.417,919
1530.384,812
1539.338,851
1548.278,891
1557.204,880
1566.117,874
1575.016,837
1583.901,981
1592.773,886
1601.631,796
1610.475,759
1619.306,736
1628.123,822
1636.926,863
1645.716,807
1654.492,822
1663.254,764
1672.003,877
1680.738,855
1689.460,826
1698.168,805
1706.862,741
1715.543,735
1724.210,912
1732.864,832
1741.504,813
1750.130,814
1758.743,922
1767.342,786
1775.928,814
1784.500,831
1793.058,824
1801.603,782
1810.134,770
1818.652,773
1827.157,814
1835.647,730
1844.124,856
1852.588,782
1861.038,795
1869.475,882
1877.898,801
1886.307,712
1894.703,807
1903.086,806
1911.455,780
1919.810,786
1928.152,814
1936.481,746
1944.795,720
1953.097,756
1961.385,765
1969.660,757
1977.921,746
1986.168,791
1994.402,749
2002.623,767
2010.830,670
2019.024,690
2027.204,860
2035.371,723
2043.525,648
2051.665,636
2059.791,652
2067.905,630
2076.004,672
2084.091,758
2092.164,738
2100.223,642
2108.269,684
2116.302,567
2124.322,628
2132.328,654
2140.320,638
2148.299,685
2156.265,641
2164.218,632
2172.157,672
2180.083,666
2187.995,697
2195.894,575
2203.780,641
2211.652,675
2217.267,623