File: experimental data/mos2 1 raman.txt
FILETYPE=RAMAN SPECTRUM
DATETIME=2025-07-28 12:31:01
CCD=Artemis
CCDMODEL=Atik428EX
LASER=532
TEMPERATURE=0
IT=4000ms
BINNING_START=761
BINNING_LENGTH=10
MODEL=XperRAM-S
SPECTROMETER=XPE200
GRATING=1800
STARTFROM=-50
RSRANGE=726.503
SPECTRATAKEN=1
DISPLAYMODE=LATEST
TYPE=RamanShift
XUNITS=1/cm
LEN=1931
XYDATA=
-468.195,720
-456.558,734
-444.935,748
-433.326,699
-421.730,731
-410.148,728
-398.579,1090
-387.025,800
-375.484,1458
-363.956,786
-352.443,855
-340.943,703
-329.457,875
-317.984,858
-306.525,844
-295.080,783
-283.649,802
-272.231,826
-260.828,835
-249.438,850
-238.061,936
-226.699,917
-215.350,894
-204.015,946
-192.694,936
-181.386,1147
-170.093,1117
-158.813,1186
-147.547,1242
-136.294,1275
-125.056,1383
-113.831,1499
-102.620,1597
-91.423,2703
-80.240,2614
-69.071,1832
-57.915,2377
-46.773,2160
-35.645,2142
-24.531,3853
-13.431,6639
-2.344,65535
8.728,27707
19.787,5387
30.832,2800
41.863,2378
52.880,2149
63.884,2112
74.873,2330
85.849,2029
96.811,1908
107.758,1653
118.693,1506
129.613,1094
140.519,1369
151.412,1145
162.290,1246
173.155,1149
184.006,1317
194.843,1153
205.666,1077
216.475,1002
227.270,1072
238.051,1078
248.819,855
259.572,984
270.312,1001
281.038,1076
291.750,801
302.448,953
313.132,995
323.802,904
334.459,963
345.101,962
355.729,834
366.344,895
376.945,1152
387.532,994
398.104,962
408.663,5575
419.209,1001
429.740,1039
440.257,1066
450.760,1050
461.250,1024
471.725,983
482.187,836
492.635,970
503.068,995
513.488,929
523.894,916
534.286,921
544.664,998
555.029,895
565.379,986
575.715,982
586.038,1060
596.347,989
606.641,876
616.922,883
627.189,967
637.442,1010
647.681,845
657.906,918
668.117,998
678.315,967
688.498,825
698.668,865
708.823,917
718.965,923
729.093,893
739.207,890
749.307,947
759.393,947
769.465,903
779.523,1053
789.568,868
799.598,902
809.615,944
819.618,959
829.607,838
839.581,823
849.543,954
859.490,947
869.423,964
879.343,947
889.248,952
899.140,845
909.018,915
918.881,838
928.731,859
938.568,885
948.390,811
958.198,896
967.993,942
977.774,903
987.540,760
997.293,942
1007.033,808
1016.758,960
1026.469,885
1036.167,877
1045.850,904
1055.520,855
1065.176,820
1074.818,882
1084.447,789
1094.061,796
1103.662,866
1113.249,865
1122.822,814
1132.381,853
1141.926,856
1151.458,825
1160.975,899
1170.479,926
1179.969,952
1189.446,844
1198.908,810
1208.357,854
1217.791,871
1227.212,844
1236.620,828
1246.013,869
1255.393,923
1264.759,849
1274.111,844
1283.449,799
1292.773,823
1302.084,823
1311.381,860
1320.664,838
1329.934,895
1339.189,856
1348.431,906
1357.659,979
1366.874,911
1376.074,871
1385.261,974
1394.434,920
1403.594,792
1412.739,861
1421.871,787
1430.989,801
1440.094,852
1449.184,852
1458.261,787
1467.325,842
1476.374,785
1485.410,862
1494.432,810
1503.441,910
1512.436,944
1521.417,810
1530.384,831
1539.338,950
1548.278,918
1557.204,971
1566.117,859
1575.016,919
1583.901,866
1592.773,808
1601.631,792
1610.475,801
1619.306,688
1628.123,869
1636.926,810
1645.716,830
1654.492,788
1663.254,817
1672.003,868
1680.738,741
1689.460,787
1698.168,786
1706.862,864
1715.543,838
1724.210,726
1732.864,779
1741.504,688
1750.130,779
1758.743,826
1767.342,634
1775.928,808
1784.500,742
1793.058,820
1801.603,755
1810.134,766
1818.652,840
1827.157,916
1835.647,690
1844.124,817
1852.588,762
1861.038,879
1869.475,808
1877.898,786
1886.307,737
1894.703,731
1903.086,730
1911.455,730
1919.810,692
1928.152,737
1936.481,676
1944.795,751
1953.097,670
1961.385,758
1969.660,697
1977.921,667
1986.168,713
1994.402,643
2002.623,652
2010.830,708
2019.024,702
2027.204,787
2035.371,651
2043.525,692
2051.665,588
2059.791,671
2067.905,657
2076.004,708
2084.091,683
2092.164,725
2100.223,723
2108.269,722
2116.302,648
2124.322,700
2132.328,594
2140.320,666
2148.299,603
2156.265,655
2164.218,613
2172.157,600
2180.083,682
2187.995,631
2195.894,659
2203.780,649
2211.652,635
2217.267,582